File: MP6/data/DSC/100K-mt.txt
Filename:	C:\Program Files\Pyris\Data\F-Praktikum\WS1819\BA-C-04\Pd-Ni-P_100k-m.dsd

Temperature (°C)	Heat Flow Endo Up (mW)
200.33	0.0699
201.67	0.0721
203.00	0.0915
204.33	0.2134
205.67	0.5254
207.00	0.9633
208.33	1.3709
209.67	1.6365
211.00	1.7370
212.33	1.7061
213.67	1.5988
215.00	1.4707
216.33	1.3573
217.67	1.2719
219.00	1.2138
220.33	1.1819
221.67	1.1708
223.00	1.1695
224.33	1.1748
225.67	1.1859
227.00	1.2020
228.33	1.2224
229.67	1.2425
231.00	1.2636
232.33	1.2861
233.67	1.3081
235.00	1.3266
236.33	1.3433
237.67	1.3517
239.00	1.3501
240.33	1.3384
241.67	1.3316
243.00	1.3285
244.33	1.3263
245.67	1.3285
247.00	1.3316
248.33	1.3303
249.67	1.3245
251.00	1.3201
252.33	1.3174
253.67	1.3084
255.00	1.2923
256.33	1.2700
257.67	1.2419
259.00	1.2057
260.33	1.1603
261.67	1.1077
263.00	1.0523
264.33	0.9905
265.67	0.9252
267.00	0.8591
268.33	0.7910
269.67	0.7221
271.00	0.6553
272.33	0.5910
273.67	0.5291
275.00	0.4685
276.33	0.4094
277.67	0.3535
279.00	0.3012
280.33	0.2557
281.67	0.2152
283.00	0.1794
284.33	0.1494
285.67	0.1237
287.00	0.1030
288.33	0.0866
289.67	0.0751
291.00	0.0693
292.33	0.0714
293.67	0.0832
295.00	0.1024
296.33	0.1265
297.67	0.1574
299.00	0.1948
300.33	0.2390
301.67	0.2916
303.00	0.3513
304.33	0.4224
305.67	0.5127
307.00	0.6194
308.33	0.7372
309.67	0.8634
311.00	1.0022
312.33	1.1600
313.67	1.3396
315.00	1.5428
316.33	1.7735
317.67	2.0336
319.00	2.3233
320.33	2.6387
321.67	2.9811
323.00	3.3457
324.33	3.7242
325.67	4.1082
327.00	4.4849
328.33	4.8359
329.67	5.1414
331.00	5.3835
332.33	5.5508
333.67	5.6430
335.00	5.6680
336.33	5.6418
337.67	5.5815
339.00	5.5051
340.33	5.4241
341.67	5.3449
343.00	5.2728
344.33	5.2116
345.67	5.1578
347.00	5.1074
348.33	5.0601
349.67	5.0165
351.00	4.9750
352.33	4.9348
353.67	4.8977
355.00	4.8656
356.33	4.8322
357.67	4.7960
359.00	4.7586
360.33	4.7193
361.67	4.6794
363.00	4.6374
364.33	4.5910
365.67	4.5424
367.00	4.4991
368.33	4.4639
369.67	4.4317
371.00	4.4033
372.33	4.3856
373.67	4.3770
375.00	4.3742
376.33	4.3717
377.67	4.3658
379.00	4.3637
380.33	4.3828
381.67	4.4351
383.00	4.5254
384.33	4.6401
385.67	4.7474
387.00	4.8189
388.33	4.8340
389.67	4.7765
391.00	4.6457
392.33	4.4636
393.67	4.2554
395.00	4.0238
396.33	3.7616
397.67	3.4712
399.00	3.1400
400.33	2.7238
401.67	2.1857
403.00	1.5335
404.33	0.7756
405.67	-0.1092
407.00	-1.1624
408.33	-2.4390
409.67	-3.9951
411.00	-5.8743
412.33	-8.1064
413.67	-10.7291
415.00	-13.8020
416.33	-17.4191
417.67	-21.7098
419.00	-26.8389
420.33	-32.9924
421.67	-40.3032
423.00	-48.6409
424.33	-57.3722
425.67	-65.5049
427.00	-71.9414
428.33	-75.7537
429.67	-76.7801
431.00	-75.7884
432.33	-73.9571
433.67	-72.0651
435.00	-69.7539
436.33	-65.6939
437.67	-58.7196
439.00	-48.9643
440.33	-37.9737
441.67	-27.6271
443.00	-19.1277
444.33	-12.8443
445.67	-8.5455
447.00	-5.7389
448.33	-3.9784
449.67	-2.9291
451.00	-2.3576
452.33	-2.1099
453.67	-2.0923
455.00	-2.2534
456.33	-2.5707
457.67	-3.0336
459.00	-3.6410
460.33	-4.3931
461.67	-5.2923
463.00	-6.3348
464.33	-7.5105
465.67	-8.8019
467.00	-10.1721
468.33	-11.5677
469.67	-12.9172
471.00	-14.1344
472.33	-15.1237
473.67	-15.7990
475.00	-16.0984
476.33	-15.9948
477.67	-15.5015
479.00	-14.6688
480.33	-13.5812
481.67	-12.3346
483.00	-11.0194
484.33	-9.7117
485.67	-8.4673
487.00	-7.3228
488.33	-6.3014
489.67	-5.4126
491.00	-4.6522
492.33	-4.0115
493.67	-3.4805
495.00	-3.0466
496.33	-2.6913
497.67	-2.3988
499.00	-2.1545
500.33	-1.9532
501.67	-1.7877
503.00	-1.6501
504.33	-1.5351
505.67	-1.4367
507.00	-1.3477
508.33	-1.2651
509.67	-1.1850
511.00	-1.1055
512.33	-1.0273
513.67	-0.9555
515.00	-0.8844
516.33	-0.8142
517.67	-0.7419
519.00	-0.6587
520.33	-0.5659
521.67	-0.4598
523.00	-0.3426
524.33	-0.2158
525.67	-0.0733
527.00	0.0922
528.33	0.2848
529.67	0.5127
531.00	0.7768
532.33	1.0805
533.67	1.4290
535.00	1.8205
536.33	2.2432
537.67	2.6724
539.00	3.0735
540.33	3.4081
541.67	3.6246
543.00	3.6803
544.33	3.5550
545.67	3.2591
547.00	2.8456
548.33	2.3855
549.67	1.9395
550.00	1.8360