File: MP6/data/DSC/20K-mt.txt
Filename:	C:\Program Files\Pyris\Data\F-Praktikum\WS1819\BA-C-04\Pd-Ni-P_20k-m.dsd

Temperature (°C)	Heat Flow Endo Up (mW)
200.07	0.1641
201.27	0.2019
202.47	0.3936
203.67	0.3707
204.87	0.3577
206.07	0.3614
207.27	0.3751
208.47	0.3853
209.67	0.3986
210.87	0.4107
212.07	0.4184
213.27	0.4221
214.47	0.4215
215.67	0.4277
216.87	0.4320
218.07	0.4358
219.27	0.4348
220.47	0.4311
221.67	0.4200
222.87	0.4277
224.07	0.4324
225.27	0.4305
226.47	0.4280
227.67	0.4258
228.87	0.4231
230.07	0.4193
231.27	0.4125
232.47	0.4076
233.67	0.3977
234.87	0.3847
236.07	0.3794
237.27	0.3710
238.47	0.3655
239.67	0.3568
240.87	0.3497
242.07	0.3419
243.27	0.3336
244.47	0.3295
245.67	0.3221
246.87	0.3125
248.07	0.3072
249.27	0.2964
250.47	0.2914
251.67	0.2852
252.87	0.2797
254.07	0.2732
255.27	0.2685
256.47	0.2663
257.67	0.2614
258.87	0.2571
260.07	0.2555
261.27	0.2540
262.47	0.2521
263.67	0.2484
264.87	0.2444
266.07	0.2413
267.27	0.2410
268.47	0.2422
269.67	0.2419
270.87	0.2413
272.07	0.2444
273.27	0.2462
274.47	0.2468
275.67	0.2465
276.87	0.2502
278.07	0.2527
279.27	0.2561
280.47	0.2577
281.67	0.2626
282.87	0.2685
284.07	0.2735
285.27	0.2784
286.47	0.2865
287.67	0.2930
288.87	0.2973
290.07	0.3094
291.27	0.3224
292.47	0.2890
293.67	0.3490
294.87	0.3704
296.07	0.3893
297.27	0.4101
298.47	0.4330
299.67	0.4612
300.87	0.4900
302.07	0.5212
303.27	0.5569
304.47	0.6018
305.67	0.6454
306.87	0.6950
308.07	0.7495
309.27	0.8065
310.47	0.8715
311.67	0.9446
312.87	1.0165
314.07	1.0920
315.27	1.1654
316.47	1.2391
317.67	1.3026
318.87	1.3568
320.07	1.3983
321.27	1.4147
322.47	1.4144
323.67	1.4027
324.87	1.3841
326.07	1.3615
327.27	1.3401
328.47	1.3259
329.67	1.3116
330.87	1.2989
332.07	1.2930
333.27	1.2884
334.47	1.2800
335.67	1.2726
336.87	1.2679
338.07	1.2645
339.27	1.2590
340.47	1.2562
341.67	1.2556
342.87	1.2525
344.07	1.2478
345.27	1.2475
346.47	1.2432
347.67	1.2413
348.87	1.2398
350.07	1.2410
351.27	1.2419
352.47	1.2410
353.67	1.2404
354.87	1.2453
356.07	1.2475
357.27	1.2357
358.47	1.2317
359.67	1.2193
360.87	1.2103
362.07	1.2069
363.27	1.2038
364.47	1.1930
365.67	1.1852
366.87	1.1747
368.07	1.1614
369.27	1.1490
370.47	1.1335
371.67	1.1143
372.87	1.0920
374.07	1.0710
375.27	1.0369
376.47	0.9969
377.67	0.9412
378.87	0.8734
380.07	0.7894
381.27	0.6919
382.47	0.5637
383.67	0.4020
384.87	0.1988
386.07	-0.0424
387.27	-0.3295
388.47	-0.6634
389.67	-1.0313
390.87	-1.4497
392.07	-1.9239
393.27	-2.4473
394.47	-3.0203
395.67	-3.6623
396.87	-4.3836
398.07	-5.1978
399.27	-6.1217
400.47	-7.1824
401.67	-8.3906
402.87	-9.7369
404.07	-11.1953
405.27	-12.6732
406.47	-13.9634
407.67	-14.8854
408.87	-15.3556
410.07	-15.3491
411.27	-14.5187
412.47	-13.4729
413.67	-12.9882
414.87	-12.9207
416.07	-12.4443
417.27	-10.1194
418.47	-5.7339
419.67	-1.9564
420.87	-0.5559
422.07	-0.2800
423.27	-0.2295
424.47	-0.2239
425.67	-0.2419
426.87	-0.2763
428.07	-0.3283
429.27	-0.3896
430.47	-0.4791
431.67	-0.5888
432.87	-0.7219
434.07	-0.8752
435.27	-1.0480
436.47	-1.2447
437.67	-1.4575
438.87	-1.6826
440.07	-1.9097
441.27	-2.1379
442.47	-2.3581
443.67	-2.5603
444.87	-2.7267
446.07	-2.8484
447.27	-2.9181
448.47	-2.9159
449.67	-2.8564
450.87	-2.7384
452.07	-2.5684
453.27	-2.3002
454.47	-2.1128
455.67	-1.8725
456.87	-1.6328
458.07	-1.4036
459.27	-1.2023
460.47	-1.0223
461.67	-0.8582
462.87	-0.7256
464.07	-0.6145
465.27	-0.5150
466.47	-0.4420
467.67	-0.3865
468.87	-0.3367
470.07	-0.2982
471.27	-0.2598
472.47	-0.2214
473.67	-0.1914
474.87	-0.1700
476.07	-0.1508
477.27	-0.1301
478.47	-0.1115
479.67	-0.1034
480.87	-0.0895
482.07	-0.0725
483.27	-0.0678
484.47	-0.0582
485.67	-0.0554
486.87	-0.0536
488.07	-0.0458
489.27	-0.0421
490.47	-0.0325
491.67	-0.0257
492.87	-0.0186
494.07	-0.0084
495.27	0.0077
496.47	0.0161
497.67	0.0260
498.87	0.0387
500.07	0.0499
501.27	0.0666
502.47	0.0818
503.67	0.0994
504.87	0.1239
506.07	0.1474
507.27	0.1753
508.47	0.2019
509.67	0.2406
510.87	0.2759
512.07	0.3227
513.27	0.3726
514.47	0.4311
515.67	0.4968
516.87	0.5714
518.07	0.6454
519.27	0.7356
520.47	0.8210
521.67	0.9164
522.87	0.9548
524.07	0.9908
525.27	0.9877
526.47	0.9393
527.67	0.8461
528.87	0.7244
530.07	0.5844
531.27	0.4516
532.47	0.3425
533.67	0.2645
534.87	0.2038
536.07	0.1778
537.27	0.1617
538.47	0.1474
539.67	0.1363
540.87	0.1236
542.07	0.1149
543.27	0.0997
544.47	0.1000
545.67	0.0991
546.87	0.0911
548.07	0.0892
549.27	0.0849
550.00	0.0858