File: MP6/data/DSC/50K-mt.txt
Filename:	C:\Program Files\Pyris\Data\F-Praktikum\WS1819\BA-C-04\Pd-Ni-P_50k-m.dsd

Temperature (°C)	Heat Flow Endo Up (mW)
200.00	0.0204
201.34	0.0148
202.67	-0.1110
204.00	-0.2418
205.34	-0.1958
206.67	-0.0387
208.00	0.1179
209.34	0.2250
210.67	0.2887
212.00	0.3333
213.34	0.5714
214.67	1.0162
216.00	0.7894
217.34	0.5918
218.67	0.5313
220.00	0.5276
221.34	0.5344
222.67	0.5461
224.00	0.5597
225.34	0.5693
226.67	0.5754
228.00	0.5797
229.34	0.5807
230.67	0.5856
232.00	0.5844
233.34	0.5853
234.67	0.5865
236.00	0.5838
237.34	0.5779
238.67	0.5733
240.00	0.5662
241.34	0.5523
242.67	0.5356
244.00	0.5140
245.34	0.4856
246.67	0.4662
248.00	0.4495
249.34	0.4276
250.67	0.4025
252.00	0.3751
253.34	0.3482
254.67	0.3167
256.00	0.2831
257.34	0.2473
258.67	0.2078
260.00	0.1883
261.34	0.1723
262.67	0.1479
264.00	0.1253
265.34	0.1050
266.67	0.0877
268.00	0.0691
269.34	0.0506
270.67	0.0358
272.00	0.0179
273.34	9.3349e-004
274.67	-0.0105
276.00	-0.0191
277.34	-0.0346
278.67	-0.0503
280.00	-0.0531
281.34	-0.0506
282.67	-0.0664
284.00	-0.0824
285.34	-0.0781
286.67	-0.0596
288.00	-0.0426
289.34	-0.0293
290.67	-0.0157
292.00	0.0019
293.34	0.0259
294.67	0.0553
296.00	0.0936
297.34	0.1343
298.67	0.1704
300.00	0.2111
301.34	0.2562
302.67	0.3075
304.00	0.3723
305.34	0.4492
306.67	0.5368
308.00	0.6285
309.34	0.7335
310.67	0.8508
312.00	0.9841
313.34	1.1329
314.67	1.2953
316.00	1.4768
317.34	1.6626
318.67	1.8590
320.00	2.0572
321.34	2.2532
322.67	2.4415
324.00	2.6014
325.34	2.7239
326.67	2.7993
328.00	2.8202
329.34	2.7980
330.67	2.7551
332.00	2.6995
333.34	2.6406
334.67	2.5872
336.00	2.5477
337.34	2.5162
338.67	2.4887
340.00	2.4631
341.34	2.4439
342.67	2.4291
344.00	2.4140
345.34	2.4069
346.67	2.4072
348.00	2.4078
349.34	2.4081
350.67	2.4128
352.00	2.4140
353.34	2.4088
354.67	2.4051
356.00	2.3986
357.34	2.3912
358.67	2.3893
360.00	2.3884
361.34	2.3887
362.67	2.3856
364.00	2.3726
365.34	2.3637
366.67	2.3554
368.00	2.3458
369.34	2.3378
370.67	2.3424
372.00	2.3535
373.34	2.3658
374.67	2.3745
376.00	2.3850
377.34	2.3729
378.67	2.3411
380.00	2.2992
381.34	2.2708
382.67	2.2451
384.00	2.1896
385.34	2.1059
386.67	1.9898
388.00	1.8411
389.34	1.6558
390.67	1.4351
392.00	1.1789
393.34	0.8748
394.67	0.4828
396.00	-0.0167
397.34	-0.6560
398.67	-1.4277
400.00	-2.3396
401.34	-3.4167
402.67	-4.6703
404.00	-6.1150
405.34	-7.7659
406.67	-9.6496
408.00	-11.8065
409.34	-14.2785
410.67	-17.0839
412.00	-20.2916
413.34	-24.0003
414.67	-28.1930
416.00	-32.6198
417.34	-36.6489
418.67	-39.4191
420.00	-40.1711
421.34	-38.7048
422.67	-35.7907
424.00	-32.8226
425.34	-30.7775
426.67	-29.4883
428.00	-27.6670
429.34	-23.1709
430.67	-15.3161
432.00	-7.8870
433.34	-3.5952
434.67	-1.7461
436.00	-1.0530
437.34	-0.8103
438.67	-0.7514
440.00	-0.7906
441.34	-0.9005
442.67	-1.0626
444.00	-1.2716
445.34	-1.5395
446.67	-1.8769
448.00	-2.2835
449.34	-2.7641
450.67	-3.3192
452.00	-3.9461
453.34	-4.6280
454.67	-5.3405
456.00	-6.0610
457.34	-6.7506
458.67	-7.3699
460.00	-7.8709
461.34	-8.2040
462.67	-8.3333
464.00	-8.2444
465.34	-7.9410
466.67	-7.4591
468.00	-6.8488
469.34	-6.1672
470.67	-5.4606
472.00	-4.7682
473.34	-4.1239
474.67	-3.4701
476.00	-2.8203
477.34	-2.3897
478.67	-2.0871
480.00	-1.8445
481.34	-1.6439
482.67	-1.4713
484.00	-1.3277
485.34	-1.2021
486.67	-1.1015
488.00	-1.0203
489.34	-0.9567
490.67	-0.8999
492.00	-0.8409
493.34	-0.7916
494.67	-0.7542
496.00	-0.7224
497.34	-0.6869
498.67	-0.6471
500.00	-0.6116
501.34	-0.5644
502.67	-0.5131
504.00	-0.4770
505.34	-0.4653
506.67	-0.4659
508.00	-0.4689
509.34	-0.4671
510.67	-0.4566
512.00	-0.4347
513.34	-0.4094
514.67	-0.3785
516.00	-0.3270
517.34	-0.2643
518.67	-0.1896
520.00	-0.1056
521.34	0.0021
522.67	0.1349
524.00	0.3016
525.34	0.4970
526.67	0.7053
528.00	0.9261
529.34	1.1727
530.67	1.4181
532.00	1.6191
533.34	1.7463
534.67	1.7883
536.00	1.7089
537.34	1.5126
538.67	1.2311
540.00	0.8989
541.34	0.5816
542.67	0.3204
544.00	0.1293
545.34	-0.0040
546.67	-0.0834
548.00	-0.1210
549.34	-0.1445
550.00	-0.1584