File: MP6/data/DSC/blei-50k-m-kuehl.txt
Filename:	C:\Program Files\Pyris\Data\F-Praktikum\WS1819\BA-C-04\blei_50k-m.dsd

Temperature (°C)	Heat Flow Endo Up (mW)
369.83	1.4231
368.83	1.6694
367.83	3.4877
366.83	5.0410
365.83	4.3807
364.83	2.4128
363.83	0.4791
362.83	-0.8832
361.83	-1.7231
360.83	-2.2368
359.83	-2.5495
358.83	-2.7462
357.83	-2.8814
356.83	-2.9592
355.83	-2.9993
354.83	-3.0218
353.83	-3.0382
352.83	-3.0536
351.83	-3.0691
350.83	-3.0857
349.83	-3.1027
348.83	-3.1197
347.83	-3.1364
346.83	-3.1527
345.83	-3.1672
344.83	-3.1503
343.83	-3.1407
342.83	-3.1716
341.83	-3.2108
340.83	-3.2422
339.83	-3.2639
338.83	-3.2805
337.83	-3.2957
336.83	-3.3108
335.83	-3.3256
334.83	-3.3407
333.83	-3.3555
332.83	-3.3707
331.83	-3.3836
330.83	-3.3951
329.83	-3.4083
328.83	-3.4235
327.83	-3.4377
326.83	-3.4500
325.83	-3.4617
324.83	-3.4744
323.83	-3.4877
322.83	-3.5009
321.83	-3.5154
320.83	-3.5309
319.83	-3.5460
318.83	-3.5596
317.83	-3.5722
316.83	-3.5852
315.83	-3.5985
314.83	-3.7136
313.83	-13.9794
312.83	-40.3483
311.83	-65.4855
310.83	-81.3526
309.83	-74.4843
308.83	-48.5189
307.83	-25.8179
306.83	-13.1283
305.83	-7.5189
304.83	-5.3309
303.83	-4.4900
302.83	-4.1288
301.83	-3.9473
300.83	-3.8498
299.83	-3.7994
298.83	-3.7772
297.83	-3.7698
296.83	-3.7695
295.83	-3.7738
294.83	-3.7797
293.83	-3.7865
292.83	-3.7951
291.83	-3.8028
290.83	-3.8106
289.83	-3.8192
288.83	-3.8285
287.83	-3.8374
286.83	-3.8467
285.83	-3.8550
284.83	-3.8624
283.83	-3.8711
282.83	-3.8794
281.83	-3.8877
280.83	-3.8945
279.83	-3.9007
278.83	-3.9081
277.83	-3.9149
276.83	-3.9214
275.83	-3.9272
274.83	-3.9337
273.83	-3.9418
272.83	-3.9501
271.83	-3.9578
270.83	-3.9655
269.83	-3.9732
268.83	-3.9788
267.83	-3.9844
266.83	-3.9893
265.83	-3.9949
264.83	-4.0004
263.83	-4.0057
262.83	-4.0057
261.83	-4.0100
260.83	-4.0103
259.83	-4.0146
258.83	-4.0251
257.83	-4.0347
256.83	-4.0405
255.83	-4.0449
254.83	-4.0498
253.83	-4.0560
252.83	-4.0615
251.83	-4.0665
250.83	-4.0720
249.83	-4.0770
248.83	-4.0813
247.83	-4.0865
246.83	-4.0915
245.83	-4.0955
244.83	-4.0995
243.83	-4.1038
242.83	-4.1069
241.83	-4.1103
240.83	-4.1140
239.83	-4.1180
238.83	-4.1217
237.83	-4.1245
236.83	-4.1291
235.83	-4.1331
234.83	-4.1369
233.83	-4.1390
232.83	-4.1415
231.83	-4.1446
230.83	-4.1473
229.83	-4.1511
228.83	-4.1538
227.83	-4.1566
226.83	-4.1597
225.83	-4.1622
224.83	-4.1634
223.83	-4.1637
222.83	-4.1631
221.83	-4.1646
220.83	-4.1671
219.83	-4.1699
218.83	-4.1720
217.83	-4.1739
216.83	-4.1739
215.83	-4.1764
214.83	-4.1785
213.83	-4.1801
212.83	-4.1832
211.83	-4.1859
210.83	-4.1862
209.83	-4.1856
208.83	-4.1853
207.83	-4.1856
206.83	-4.1847
205.83	-4.1841
204.83	-4.1841
203.83	-4.1825
202.83	-4.1807
201.83	-4.1791
200.83	-4.1788
199.83	-4.1782
198.83	-4.1757
197.83	-4.1727
196.83	-4.1702
195.83	-4.1674
194.83	-4.1643
193.83	-4.1622
192.83	-4.1615
191.83	-4.1600
190.83	-4.1575
189.83	-4.1551
188.83	-4.1498
187.83	-4.1458
186.83	-4.1424
185.83	-4.1384
184.83	-4.1378
183.83	-4.1402
182.83	-4.1359
181.83	-4.1288
180.83	-4.1208
179.83	-4.1128
178.83	-4.1063
177.83	-4.1017
176.83	-4.0976
175.83	-4.0912
174.83	-4.0850
173.83	-4.0801
172.83	-4.0745
171.83	-4.0696
170.83	-4.0655
169.83	-4.0603
168.83	-4.0541
167.83	-4.0470
166.83	-4.0405
165.83	-4.0334
164.83	-4.0257
163.83	-4.0195
162.83	-4.0121
161.83	-4.0035
160.83	-3.9945
159.83	-3.9862
158.83	-3.9769
157.83	-3.9671
156.83	-3.9569
155.83	-3.9479
154.83	-3.9399
153.83	-3.9306
152.83	-3.9195
151.83	-3.9084
150.83	-3.8976
149.83	-3.8862
148.83	-3.8748
147.83	-3.8624
146.83	-3.8482
145.83	-3.8337
144.83	-3.8198
143.83	-3.8069
142.83	-3.7936
141.83	-3.7803
140.83	-3.7658
139.83	-3.7510
138.83	-3.7355
137.83	-3.7204
136.83	-3.7056
135.83	-3.6908
134.83	-3.6735
133.83	-3.6568
132.83	-3.6405
131.83	-3.6219
130.83	-3.6037
129.83	-3.5855
128.83	-3.5676
127.83	-3.5494
126.83	-3.5312
125.83	-3.5142
124.83	-3.4948
123.83	-3.4741
122.83	-3.4528
121.83	-3.4296
120.83	-3.4059
119.83	-3.3809
118.83	-3.3562
117.83	-3.3312
116.83	-3.3037
115.83	-3.2737
114.83	-3.2432
113.83	-3.2114
112.83	-3.1790
111.83	-3.1441
110.83	-3.1070
109.83	-3.0681
108.83	-3.0274
107.83	-2.9839
106.83	-2.9363
105.83	-2.8842
104.83	-2.8301
103.83	-2.7755
102.83	-2.7190
101.83	-2.6600
100.83	-2.5992
100.00	-2.5363