File: MP6/data/DSC/blei-50k-m-heiz.txt
Filename:	C:\Program Files\Pyris\Data\F-Praktikum\WS1819\BA-C-04\blei_50k-m.dsd

Temperature (°C)	Heat Flow Endo Up (mW)
100.17	0.0022
101.17	0.0130
102.17	0.1806
103.17	0.8353
104.17	1.7929
105.17	2.5585
106.17	2.9240
107.17	2.9904
108.17	2.9261
109.17	2.8416
110.17	2.7798
111.17	2.7477
112.17	2.7394
113.17	2.7431
114.17	2.7480
115.17	2.7493
116.17	2.7440
117.17	2.7338
118.17	2.7227
119.17	2.7116
120.17	2.7002
121.17	2.6891
122.17	2.6767
123.17	2.6634
124.17	2.6486
125.17	2.6329
126.17	2.6171
127.17	2.6036
128.17	2.5915
129.17	2.5779
130.17	2.5628
131.17	2.5471
132.17	2.5316
133.17	2.5171
134.17	2.5026
135.17	2.4890
136.17	2.4764
137.17	2.4619
138.17	2.4464
139.17	2.4310
140.17	2.4149
141.17	2.3973
142.17	2.3782
143.17	2.3594
144.17	2.3430
145.17	2.3279
146.17	2.3134
147.17	2.2989
148.17	2.2844
149.17	2.2695
150.17	2.2550
151.17	2.2405
152.17	2.2260
153.17	2.2100
154.17	2.1924
155.17	2.1769
156.17	2.1630
157.17	2.1498
158.17	2.1362
159.17	2.1211
160.17	2.1041
161.17	2.0883
162.17	2.0735
163.17	2.0602
164.17	2.0467
165.17	2.0346
166.17	2.0251
167.17	2.0189
168.17	2.0121
169.17	2.0007
170.17	1.9902
171.17	1.9821
172.17	1.9744
173.17	1.9658
174.17	1.9574
175.17	1.9488
176.17	1.9395
177.17	1.9287
178.17	1.9173
179.17	1.9047
180.17	1.8905
181.17	1.8778
182.17	1.8676
183.17	1.8587
184.17	1.8516
185.17	1.8432
186.17	1.8349
187.17	1.8272
188.17	1.8204
189.17	1.8139
190.17	1.8059
191.17	1.7982
192.17	1.7904
193.17	1.7846
194.17	1.7778
195.17	1.7695
196.17	1.7630
197.17	1.7556
198.17	1.7469
199.17	1.7398
200.17	1.7336
201.17	1.7265
202.17	1.7198
203.17	1.7130
204.17	1.7074
205.17	1.7028
206.17	1.6969
207.17	1.6910
208.17	1.6864
209.17	1.6827
210.17	1.6756
211.17	1.6685
212.17	1.6654
213.17	1.6651
214.17	1.6636
215.17	1.6626
216.17	1.6614
217.17	1.6589
218.17	1.6552
219.17	1.6494
220.17	1.6426
221.17	1.6355
222.17	1.6299
223.17	1.6231
224.17	1.6154
225.17	1.6105
226.17	1.6065
227.17	1.6015
228.17	1.5960
229.17	1.5907
230.17	1.5855
231.17	1.5808
232.17	1.5778
233.17	1.5747
234.17	1.5716
235.17	1.5691
236.17	1.5663
237.17	1.5626
238.17	1.5583
239.17	1.5540
240.17	1.5509
241.17	1.5487
242.17	1.5441
243.17	1.5407
244.17	1.5395
245.17	1.5370
246.17	1.5330
247.17	1.5281
248.17	1.5259
249.17	1.5228
250.17	1.5210
251.17	1.5194
252.17	1.5172
253.17	1.5157
254.17	1.5139
255.17	1.5120
256.17	1.5086
257.17	1.5043
258.17	1.4987
259.17	1.4932
260.17	1.4882
261.17	1.4830
262.17	1.4780
263.17	1.4762
264.17	1.4780
265.17	1.4746
266.17	1.4623
267.17	1.4490
268.17	1.4407
269.17	1.4367
270.17	1.4348
271.17	1.4299
272.17	1.4246
273.17	1.4209
274.17	1.4166
275.17	1.4114
276.17	1.4058
277.17	1.4012
278.17	1.3972
279.17	1.3928
280.17	1.3894
281.17	1.3867
282.17	1.3845
283.17	1.3814
284.17	1.3765
285.17	1.3737
286.17	1.3737
287.17	1.3752
288.17	1.3774
289.17	1.3805
290.17	1.3845
291.17	1.3873
292.17	1.3882
293.17	1.3864
294.17	1.3845
295.17	1.3820
296.17	1.3796
297.17	1.3777
298.17	1.3731
299.17	1.3709
300.17	1.3709
301.17	1.3685
302.17	1.3669
303.17	1.3691
304.17	1.3731
305.17	1.3765
306.17	1.3799
307.17	1.3842
308.17	1.3873
309.17	1.3894
310.17	1.3941
311.17	1.3996
312.17	1.4043
313.17	1.4086
314.17	1.4126
315.17	1.4219
316.17	1.4249
317.17	1.4237
318.17	1.4225
319.17	1.4237
320.17	1.4268
321.17	1.4305
322.17	1.4327
323.17	1.4348
324.17	1.4385
325.17	1.4675
326.17	2.3226
327.17	6.7244
328.17	15.7760
329.17	28.0813
330.17	41.7865
331.17	55.7180
332.17	67.5297
333.17	62.9835
334.17	41.8205
335.17	22.3685
336.17	10.8918
337.17	5.4803
338.17	3.2188
339.17	2.2995
340.17	1.8988
341.17	1.7022
342.17	1.5963
343.17	1.5373
344.17	1.5068
345.17	1.4904
346.17	1.4780
347.17	1.4654
348.17	1.4567
349.17	1.4518
350.17	1.4490
351.17	1.4450
352.17	1.4416
353.17	1.4407
354.17	1.4388
355.17	1.4373
356.17	1.4395
357.17	1.4413
358.17	1.4425
359.17	1.4407
360.17	1.4364
361.17	1.4320
362.17	1.4302
363.17	1.4290
364.17	1.4259
365.17	1.4240
366.17	1.4231
367.17	1.4225
368.17	1.4225
369.17	1.4231
370.00	1.4231