File: MP6/data/XRD/Roentgen_Kristallin.uxd
; (content of file C:\DIFFDAT1\FPraktikum\WS1819\BA-C-04\Roentgen_Kristallin.raw)
_FILEVERSION = 2
_SAMPLE = Kristall
_+SAMPLE =
_SITE = Münster
_USER = "Institut für Materialphysik"
_GONIOMETER_CODE = 0
; Goniometer : D5000 theta/2theta, stage : Unknown
_SAMPLE_CHANGER_CODE = 0
_ATTACHMENTS_CODE = 0
_GONIOMETER_RADIUS = 217.5
_FIXED_DIVSLIT = 0
_FIXED_SAMPLESLIT = 0
_FIXED_DETSLIT = 1
_MONOCHROMATOR = 0
; Incident beam monochromator : None
_SOLLER_SLITS_2 = N
_THIN_FILM = N
_BETA_FILTER = N
_FIXED_ANTISLIT = 0
_ANALYZER_CODE = 0
; Received beam analyzer : None
_DATEMEASURED = "07-Jan-2019 10:01:33"
_WL_UNIT = A
_WL1 = 1.5406
_WL2 = 1.54439
_WL3 = 1.39222
_WLRATIO = 0.5
_ANODE = Cu

; Data for range 1
_DRIVE = COUPLED
_STEPTIME = 2
_STEPSIZE = 0.02
_STEPMODE = C
_START = 20
_THETA = 10
_2THETA = 20
_KHI = 0
_PHI = 0
_X = 0
_Y = 0
_Z = 0
_DIVERGENCE = 0.992
_ANTISCATTER = 0.499
_DETECTOR = 1
; Detector type : Scintillation counter
_HV = 950
_GAIN = 80
_LLD = 0.8
_ULD = 1.6
_DETECTORSLIT = out
_AUX1 = 0
_AUX2 = 0
_AUX3 = 0
_TIMESTARTED = 8
_ROTATION_SPEED = 30
_TEMP_RATE = -1
_TEMP_DELAY = -1
_RANGE_WL = 1.5406
_3DPLANE = 0
_V4_COUNTERS_MASK = 1
_V4_DRIVES_MASK = 0
_V4_ENCODERS_MASK = 0
_2THETACOUNTS = 1
; 2THETA  Cnt1_D1
  20.0000          4
  20.1800          4
  20.3600          4
  20.5400          5
  20.7200          2
  20.9000          9
  21.0800          4
  21.2600          6
  21.4400         16
  21.6200         12
  21.8000          6
  21.9800          2
  22.1600          3
  22.3400          4
  22.5200          8
  22.7000          3
  22.8800          2
  23.0600          5
  23.2400          3
  23.4200          5
  23.6000          4
  23.7800          5
  23.9600          4
  24.1400          7
  24.3200          2
  24.5000          2
  24.6800          2
  24.8600          1
  25.0400          2
  25.2200          6
  25.4000          2
  25.5800          1
  25.7600          1
  25.9400          2
  26.1200          4
  26.3000          3
  26.4800          4
  26.6600          5
  26.8400          3
  27.0200          4
  27.2000          6
  27.3800         10
  27.5600          1
  27.7400          2
  27.9200          3
  28.1000          4
  28.2800          9
  28.4600          2
  28.6400          2
  28.8200          3
  29.0000          5
  29.1800          1
  29.3600          1
  29.5400          3
  29.7200          2
  29.9000          0
  30.0800          3
  30.2600          0
  30.4400          4
  30.6200          3
  30.8000          9
  30.9800          1
  31.1600          3
  31.3400         12
  31.5200          4
  31.7000          5
  31.8800          5
  32.0600          1
  32.2400          1
  32.4200          4
  32.6000          2
  32.7800          1
  32.9600          2
  33.1400          2
  33.3200          0
  33.5000          3
  33.6800          3
  33.8600          6
  34.0400          3
  34.2200          1
  34.4000          4
  34.5800          2
  34.7600          4
  34.9400         13
  35.1200          6
  35.3000          5
  35.4800          6
  35.6600          1
  35.8400          3
  36.0200         12
  36.2000          3
  36.3800          3
  36.5600          3
  36.7400          4
  36.9200          4
  37.1000         22
  37.2800         14
  37.4600          0
  37.6400          4
  37.8200          6
  38.0000         14
  38.1800          6
  38.3600          8
  38.5400         14
  38.7200         20
  38.9000          8
  39.0800          8
  39.2600         13
  39.4400         51
  39.6200         48
  39.8000         69
  39.9800         31
  40.1600         12
  40.3400         19
  40.5200         58
  40.7000         20
  40.8800         11
  41.0600         14
  41.2400          9
  41.4200         25
  41.6000         59
  41.7800         21
  41.9600          7
  42.1400          3
  42.3200          7
  42.5000         13
  42.6800         27
  42.8600         15
  43.0400         10
  43.2200         16
  43.4000         30
  43.5800         44
  43.7600         17
  43.9400         35
  44.1200         10
  44.3000          8
  44.4800          7
  44.6600         16
  44.8400         10
  45.0200          4
  45.2000         17
  45.3800         21
  45.5600          5
  45.7400          5
  45.9200         11
  46.1000          5
  46.2800          5
  46.4600          1
  46.6400          7
  46.8200         26
  47.0000         19
  47.1800          8
  47.3600          1
  47.5400          8
  47.7200          3
  47.9000          5
  48.0800          3
  48.2600          6
  48.4400          6
  48.6200         10
  48.8000          9
  48.9800          7
  49.1600          3
  49.3400          9
  49.5200         10
  49.7000          9
  49.8800          5
  50.0600          2
  50.2400          3
  50.4200          5
  50.6000          5
  50.7800          7
  50.9600          9
  51.1400          8
  51.3200         12
  51.5000          3
  51.6800          5
  51.8600          7
  52.0400          3
  52.2200          0
  52.4000          4
  52.5800          3
  52.7600          0
  52.9400          6
  53.1200         12
  53.3000          4
  53.4800          5
  53.6600          2
  53.8400          5
  54.0200          1
  54.2000          3
  54.3800          2
  54.5600          4
  54.7400         18
  54.9200          9
  55.1000          0
  55.2800          1
  55.4600          6
  55.6400          2
  55.8200          3
  56.0000         14
  56.1800         12
  56.3600          5
  56.5400          3
  56.7200          5
  56.9000          7
  57.0800          3
  57.2600          0
  57.4400          2
  57.6200          0
  57.8000         10
  57.9800          3
  58.1600          3
  58.3400          1
  58.5200          3
  58.7000          3
  58.8800          2
  59.0600          2
  59.2400          4
  59.4200          0
  59.6000          3
  59.7800          3
  59.9600          9
  60.1400          4
  60.3200          4
  60.5000          3
  60.6800          3
  60.8600          2
  61.0400          1
  61.2200          5
  61.4000          4
  61.5800          4
  61.7600          3
  61.9400          1
  62.1200          0
  62.3000          0
  62.4800          0
  62.6600          0
  62.8400          1
  63.0200          0
  63.2000          0
  63.3800          1
  63.5600          0
  63.7400          1
  63.9200          1
  64.1000          0
  64.2800          0
  64.4600          0
  64.6400          0
  64.8200          0
  65.0000          0
  65.1800          1
  65.3600          0
  65.5400          1
  65.7200          0
  65.9000          0
  66.0800          0
  66.2600          0
  66.4400          0
  66.6200          0
  66.8000          0
  66.9800          0
  67.1600          1
  67.3400          0
  67.5200          0
  67.7000          0
  67.8800          0
  68.0600          0
  68.2400          0
  68.4200          1
  68.6000          1
  68.7800          1
  68.9600          0
  69.1400          0
  69.3200          1
  69.5000          0
  69.6800          0
  69.8600          0
  70.0000          1